C,Density=2.2,
"Energy(eV),","Delta,",Beta
250,0.003669393,0.000240332
251.068527,0.003602366,0.000235909
252.141632,0.003532443,0.000231568
253.219299,0.003460545,0.000227307
254.301575,0.003389613,0.000223125
255.388504,0.003319632,0.000219019
256.480042,0.003243895,0.000214989
257.576263,0.003167538,0.000211032
258.677185,0.003092238,0.000207148
259.782776,0.003017562,0.000203336
260.893127,0.002932989,0.000199595
262.008209,0.002849628,0.000195922
263.128082,0.002767478,0.000192316
264.252686,0.002681898,0.000188778
265.382141,0.002585538,0.000185304
266.516418,0.002490629,0.000181894
267.655518,0.002397146,0.000178547
268.7995,0.002291107,0.000175262
269.948395,0.002173587,0.000172037
271.102203,0.00205791,0.000168871
272.260895,0.00194403,0.000165763
273.424561,0.001792044,0.000162713
274.593201,0.001629452,0.000159718
275.766846,0.001469477,0.000156779
276.945496,0.001312118,0.000153894
278.129181,0.000998566,0.000151062
279.317932,0.000688699,0.000148283
280.51181,0.00038399,0.000145554
281.710724,-0.000264084,0.000142876
282.914795,-0.002072367,0.000140246
284.123993,-0.003813229,0.000205903
285.338379,-0.001614141,0.00389511
286.557953,-6.48E-05,0.003841989
287.782684,0.000356309,0.003789594
289.012726,0.000770224,0.003737913
290.247986,0.001177128,0.003686936
291.488525,0.001416847,0.003636655
292.734375,0.001585544,0.003587059
293.985565,0.001751293,0.003538137
295.242096,0.001914092,0.003489884
296.503998,0.00201787,0.003442291
297.771271,0.002116339,0.003395345
299.043976,0.002212976,0.003349041
300.322113,0.002302782,0.003303367
301.605743,0.002368108,0.00325831
302.894836,0.002432149,0.00321387
304.189423,0.002494932,0.003170036
305.489563,0.002549695,0.003126802
306.795258,0.002593984,0.003084164
308.106537,0.002637336,0.003042108
309.423431,0.002679772,0.003000624
310.745911,0.002714416,0.002959703
312.074066,0.002744699,0.002919339
313.407928,0.002774278,0.002879523
314.747467,0.002803151,0.002840252
316.092712,0.002824801,0.002801515
317.443726,0.002845115,0.002763305
318.800507,0.002864875,0.002725618
320.163086,0.002883383,0.002688445
321.531494,0.002896728,0.002651778
322.905792,0.002909633,0.002615612
324.285889,0.00292211,0.00257994
325.671936,0.002932648,0.002544754
327.063873,0.002940229,0.002510054
328.461792,0.002947471,0.002475824
329.865662,0.002954376,0.002442063
331.275543,0.002959008,0.00240876
332.691467,0.002962108,0.002375906
334.113434,0.002964939,0.002343503
335.541443,0.002967509,0.002311542
336.975586,0.002967671,0.002280014
338.415863,0.002967224,0.002248917
339.862274,0.002966571,0.002218244
341.31488,0.002965542,0.002187989
342.773712,0.002962423,0.002158151
344.238739,0.002959145,0.00212872
345.710083,0.002955711,0.002099689
347.187683,0.002951574,0.002071055
348.67157,0.002946156,0.002042812
350.161835,0.002940618,0.002014952
351.658478,0.002934959,0.001987473
353.161499,0.002928411,0.001960369
354.670898,0.002921161,0.001933633
356.186829,0.00291382,0.001907263
357.709198,0.002906393,0.001881252
359.238098,0.002897984,0.001855595
360.773499,0.002889281,0.001830289
362.315491,0.002880516,0.001805328
363.864075,0.002871662,0.001780706
365.419281,0.002861914,0.00175642
366.981079,0.002852124,0.001732466
368.549622,0.002842296,0.001708837
370.124817,0.002832311,0.001685532
371.706787,0.002821985,0.001662545
373.295471,0.002811632,0.00163987
374.890991,0.002801249,0.001617506
376.493317,0.002790571,0.001594894
378.102478,0.002779619,0.001572079
379.718536,0.002768649,0.001549591
381.341492,0.002757666,0.001527425
382.971375,0.002745748,0.001505097
384.608246,0.002733527,0.001482939
386.252106,0.002721318,0.001461107
387.902985,0.002709117,0.001439597
389.560913,0.002695734,0.001418404
391.225922,0.002682369,0.001397523
392.898071,0.002669038,0.001376948
394.577362,0.002655566,0.001356677
396.263824,0.002641545,0.001336704
397.957489,0.002627572,0.001317025
399.658417,0.002613644,0.001297636
401.366577,0.002599463,0.001278533
403.082062,0.00258499,0.001259709
404.804871,0.002570575,0.001241164
406.535065,0.002556218,0.00122289
408.272614,0.002541534,0.001204887
410.017639,0.002526752,0.001187148
411.770111,0.002512039,0.00116967
413.53006,0.002497392,0.00115245
415.297516,0.002482363,0.001135484
417.07254,0.00246738,0.001118767
418.855133,0.002452473,0.001102298
420.645386,0.002437565,0.00108607
422.443237,0.002422393,0.00107008
424.24881,0.002407303,0.001054326
426.062103,0.002392293,0.001038804
427.883148,0.002377212,0.001023509
429.711945,0.002362,0.001008441
431.548584,0.002346874,0.000993594
433.393066,0.002331836,0.000978965
435.245422,0.00231667,0.000964553
437.105713,0.002301481,0.000950353
438.973969,0.002286383,0.000936361
440.850159,0.002271375,0.000922577
442.734406,0.002256201,0.000908995
444.626678,0.002241092,0.000895612
446.5271,0.002226075,0.000882427
448.435577,0.002211118,0.000869436
450.352264,0.002196032,0.000856635
452.2771,0.002181043,0.000844024
454.210175,0.00216615,0.000831598
456.15152,0.002151269,0.000819354
458.101166,0.002136342,0.000807293
460.059113,0.002121513,0.000795409
462.025452,0.002106783,0.000783699
464.000183,0.002092028,0.000772161
465.983398,0.002077295,0.000760793
467.975037,0.002062662,0.000749592
469.97522,0.002048127,0.000738556
471.983948,0.002033548,0.000727684
474.001251,0.002019043,0.000716971
476.027191,0.002004638,0.000706417
478.061768,0.001990322,0.000696017
480.105042,0.001976003,0.000685762
482.157074,0.001961783,0.000675659
484.217865,0.001947662,0.000665704
486.287445,0.001933583,0.000655854
488.365875,0.001919487,0.00064606
490.453217,0.001905489,0.000636412
492.549469,0.001891592,0.000626908
494.654694,0.001877681,0.000617546
496.76889,0.001863781,0.000608324
498.89212,0.001849982,0.000599239
501.024414,0.001836283,0.00059029
503.165833,0.001822563,0.000581475
505.316437,0.001808912,0.00057279
507.476196,0.001795361,0.000564236
509.645233,0.001781906,0.000555809
511.823486,0.001768424,0.000547509
514.011108,0.001755042,0.000539333
516.208008,0.001741761,0.000531279
518.414307,0.001728546,0.000523345
520.630127,0.001715347,0.000515529
522.855347,0.001702247,0.00050783
525.090027,0.001689247,0.000500246
527.334351,0.001676291,0.000492775
529.588196,0.001663384,0.000485416
531.851746,0.001650576,0.000478166
534.124939,0.001637865,0.000471025
536.407837,0.001625182,0.00046399
538.7005,0.001612573,0.000457061
541.002991,0.00160006,0.000450236
543.315308,0.001587645,0.000443512
545.637451,0.001575243,0.000436888
547.969604,0.001562935,0.000430363
550.311646,0.001550724,0.000423936
552.663757,0.001538589,0.000417605
555.025879,0.001526492,0.000411369
557.398071,0.00151449,0.000405225
559.780457,0.001502581,0.000399174
562.173035,0.001490733,0.000393213
564.575867,0.001478942,0.000387339
566.988892,0.001467244,0.000381554
569.412231,0.001455638,0.000375856
571.845947,0.00144408,0.000370242
574.2901,0.001432596,0.000364713
576.74469,0.001421203,0.000359267
579.209717,0.0014099,0.000353902
581.685364,0.001398634,0.000348617
584.171509,0.001387455,0.000343411
586.668335,0.001376364,0.000338283
589.175842,0.001365353,0.000333231
591.69397,0.00135439,0.000328255
594.222961,0.001343514,0.000323352
596.762695,0.001332726,0.000318523
599.313354,0.001322004,0.000313766
601.874878,0.001311343,0.00030908
604.447388,0.001300766,0.000304464
607.030823,0.001290275,0.000299917
609.625366,0.001279842,0.000295438
612.230957,0.001269478,0.000291026
614.847656,0.001259198,0.00028668
617.475647,0.001249001,0.000282399
620.114746,0.001238854,0.000278182
622.765198,0.001228785,0.000274027
625.426941,0.001218798,0.000269934
628.100098,0.001208887,0.000265903
630.784607,0.001199027,0.000261932
633.480652,0.001189248,0.00025802
636.188293,0.001179547,0.000254167
638.907349,0.001169915,0.000250372
641.638184,0.00116034,0.000246632
644.380554,0.001150845,0.000242949
647.134705,0.001141427,0.00023932
649.900635,0.001132066,0.000235746
652.678345,0.00112277,0.000232226
655.468018,0.00111355,0.000228758
658.269531,0.001104406,0.000225342
661.083069,0.001095304,0.000221977
663.90863,0.001086271,0.000218661
666.746216,0.001077312,0.000215395
669.595947,0.001068424,0.000212183
672.457886,0.001059575,0.000209069
675.332031,0.001050799,0.000206
678.218445,0.001042096,0.000202977
681.117249,0.001033473,0.000200014
684.028381,0.00102494,0.00019713
686.951965,0.001016477,0.000194288
689.888062,0.001008084,0.000191486
692.836792,0.000999826,0.000188735
695.797974,0.000991689,0.00018603
698.771912,0.000983618,0.000183364
701.758484,0.000975612,0.000180736
704.757935,0.000967707,0.000178023
707.770081,0.000959876,0.00017532
710.795227,0.000952107,0.000172659
713.833191,0.000944398,0.000170034
716.884216,0.000936638,0.000167353
719.948242,0.000928943,0.000164714
723.025391,0.00092131,0.000162117
726.115662,0.000913721,0.00015956
729.219116,0.000906144,0.000157044
732.335938,0.00089863,0.000154568
735.466003,0.000891178,0.000152131
738.609436,0.000883767,0.000149733
741.766357,0.000876398,0.000147372
744.936707,0.00086909,0.000145048
748.120667,0.000861843,0.000142761
751.318237,0.000854633,0.00014051
754.529419,0.000847477,0.000138295
757.754333,0.00084038,0.000136115
760.993042,0.000833342,0.000133969
764.245605,0.00082634,0.000131856
767.512085,0.000819397,0.000129776
770.792542,0.000812512,0.00012773
774.086975,0.00080568,0.000125715
777.395508,0.00079889,0.000123732
780.71814,0.000792158,0.00012178
784.054993,0.000785482,0.000119859
787.406128,0.000778854,0.000117968
790.771606,0.000772274,0.000116106
794.151428,0.000765748,0.000114274
797.545715,0.000759278,0.000112471
800.954529,0.000752853,0.000110696
804.377869,0.000746477,0.000108949
807.815857,0.000740155,0.000107229
811.268555,0.000733887,0.000105537
814.736023,0.00072766,0.000103872
818.218262,0.000721486,0.000102232
821.715393,0.000715364,0.000100619
825.227478,0.000709292,9.90E-05
828.754578,0.000703264,9.75E-05
832.296814,0.000697287,9.59E-05
835.854126,0.000691361,9.44E-05
839.426636,0.000685482,9.29E-05
843.014404,0.00067965,9.15E-05
846.617554,0.000673866,9.00E-05
850.236145,0.000668132,8.86E-05
853.870117,0.000662441,8.72E-05
857.519653,0.000656796,8.58E-05
861.184753,0.000651198,8.44E-05
864.86554,0.000645649,8.31E-05
868.562073,0.000640137,8.18E-05
872.274414,0.000634671,8.05E-05
876.002563,0.000629252,7.92E-05
879.746704,0.000623878,7.79E-05
883.506836,0.000618542,7.67E-05
887.28302,0.000613253,7.55E-05
891.075378,0.000608008,7.43E-05
894.883911,0.000602806,7.31E-05
898.70874,0.000597644,7.20E-05
902.549927,0.000592527,7.08E-05
906.407471,0.000587454,6.97E-05
910.281616,0.000582421,6.86E-05
914.172241,0.00057743,6.75E-05
918.079468,0.000572482,6.64E-05
922.003418,0.000567576,6.54E-05
925.944153,0.000562708,6.43E-05
929.901794,0.000557882,6.33E-05
933.876282,0.000553097,6.23E-05
937.867737,0.000548352,6.13E-05
941.876282,0.000543643,6.03E-05
945.901917,0.000538974,5.94E-05
949.944824,0.000534345,5.84E-05
954.005005,0.000529754,5.75E-05
958.08252,0.0005252,5.66E-05
962.177429,0.000520685,5.57E-05
966.289856,0.000516209,5.48E-05
970.419922,0.000511769,5.39E-05
974.567566,0.000507366,5.30E-05
978.733032,0.000503,5.22E-05
982.916199,0.000498672,5.14E-05
987.11731,0.000494379,5.05E-05
991.336365,0.000490122,4.97E-05
995.573425,0.000485902,4.89E-05
999.828552,0.000481718,4.82E-05
1004.10199,0.000477568,4.74E-05
1008.39355,0.000473453,4.66E-05
1012.70355,0.000469375,4.59E-05
1017.03192,0.000465331,4.52E-05
1021.37885,0.000461323,4.44E-05
1025.74426,0.00045735,4.37E-05
1030.12842,0.00045341,4.30E-05
1034.53137,0.000449505,4.23E-05
1038.95312,0.000445635,4.17E-05
1043.39355,0.000441798,4.10E-05
1047.85327,0.000437993,4.03E-05
1052.33179,0.000434217,3.97E-05
1056.82959,0.000430472,3.90E-05
1061.34656,0.00042676,3.84E-05
1065.88293,0.000423079,3.78E-05
1070.4386,0.000419426,3.72E-05
1075.01379,0.000415805,3.66E-05
1079.6084,0.000412214,3.60E-05
1084.22278,0.000408654,3.54E-05
1088.85693,0.000405123,3.48E-05
1093.51074,0.000401623,3.43E-05
1098.18457,0.000398153,3.37E-05
1102.8783,0.000394712,3.32E-05
1107.59216,0.0003913,3.26E-05
1112.32617,0.000387917,3.21E-05
1117.08032,0.000384563,3.16E-05
1121.85474,0.000381237,3.11E-05
1126.64978,0.000377939,3.06E-05
1131.46509,0.00037467,3.01E-05
1136.30115,0.000371429,2.96E-05
1141.15771,0.000368216,2.91E-05
1146.03516,0.00036503,2.86E-05
1150.93347,0.000361871,2.82E-05
1155.85266,0.00035874,2.77E-05
1160.79297,0.000355635,2.73E-05
1165.75427,0.000352557,2.68E-05
1170.73682,0.000349506,2.64E-05
1175.74072,0.000346481,2.60E-05
1180.76587,0.000343482,2.56E-05
1185.81262,0.000340508,2.51E-05
1190.88086,0.000337561,2.47E-05
1195.97095,0.000334639,2.43E-05
1201.08264,0.000331742,2.39E-05
1206.21606,0.000328871,2.36E-05
1211.37158,0.000326024,2.32E-05
1216.54919,0.000323202,2.28E-05
1221.74878,0.000320404,2.24E-05
1226.9707,0.000317631,2.21E-05
1232.21484,0.000314882,2.17E-05
1237.48145,0.000312157,2.14E-05
1242.77051,0.000309456,2.10E-05
1248.08228,0.000306778,2.07E-05
1253.41675,0.000304123,2.03E-05
1258.77393,0.000301491,2.00E-05
1264.15405,0.000298882,1.97E-05
1269.55725,0.000296295,1.93E-05
1274.9834,0.00029373,1.90E-05
1280.43286,0.000291186,1.87E-05
1285.90564,0.000288665,1.84E-05
1291.40161,0.000286165,1.81E-05
1296.92126,0.000283685,1.78E-05
1302.46436,0.000281227,1.75E-05
1308.03137,0.00027879,1.72E-05
1313.62183,0.000276375,1.70E-05
1319.23657,0.00027398,1.67E-05
1324.875,0.000271605,1.64E-05
1330.53772,0.000269251,1.61E-05
1336.22461,0.000266918,1.59E-05
1341.93567,0.000264604,1.56E-05
1347.67126,0.000262311,1.53E-05
1353.4314,0.000260037,1.51E-05
1359.21606,0.000257783,1.48E-05
1365.02551,0.000255548,1.46E-05
1370.85974,0.000253333,1.44E-05
1376.71887,0.000251137,1.41E-05
1382.60315,0.00024896,1.39E-05
1388.51245,0.000246801,1.37E-05
1394.44727,0.000244662,1.34E-05
1400.40723,0.000242541,1.32E-05
1406.3927,0.000240438,1.30E-05
1412.40369,0.000238354,1.28E-05
1418.44043,0.000236288,1.26E-05
1424.50305,0.000234239,1.24E-05
1430.59155,0.000232209,1.22E-05
1436.70605,0.000230196,1.20E-05
1442.84668,0.000228201,1.18E-05
1449.01343,0.000226223,1.16E-05
1455.20679,0.000224262,1.14E-05
1461.42651,0.000222318,1.12E-05
1467.67273,0.000220392,1.10E-05
1473.94568,0.000218482,1.08E-05
1480.24548,0.000216588,1.07E-05
1486.57227,0.000214711,1.05E-05
1492.92603,0.000212851,1.03E-05
1499.30688,0.000211006,1.01E-05
1505.71509,0.000209178,9.98E-06
1512.15063,0.000207366,9.81E-06
1518.61377,0.000205569,9.65E-06
1525.10449,0.000203788,9.49E-06
1531.62292,0.000202021,9.34E-06
1538.16931,0.000200271,9.18E-06
1544.74353,0.000198535,9.03E-06
1551.34595,0.000196815,8.88E-06
1557.97644,0.000195109,8.73E-06
1564.6355,0.000193419,8.59E-06
1571.32288,0.000191743,8.45E-06
1578.03894,0.000190081,8.31E-06
1584.78357,0.000188434,8.17E-06
1591.55713,0.000186801,8.04E-06
1598.35962,0.000185183,7.90E-06
1605.19116,0.000183579,7.77E-06
1612.05188,0.000181988,7.65E-06
1618.94202,0.000180411,7.52E-06
1625.86157,0.000178848,7.39E-06
1632.81055,0.000177299,7.27E-06
1639.78931,0.000175763,7.15E-06
1646.79797,0.000174241,7.03E-06
1653.83655,0.000172732,6.92E-06
1660.90527,0.000171236,6.80E-06
1668.00415,0.000169753,6.69E-06
1675.1333,0.000168283,6.58E-06
1682.29309,0.000166825,6.47E-06
1689.48328,0.000165381,6.37E-06
1696.70435,0.000163949,6.26E-06
1703.9563,0.00016253,6.16E-06
1711.23914,0.000161123,6.06E-06
1718.55322,0.000159728,5.96E-06
1725.89844,0.000158345,5.86E-06
1733.27502,0.000156975,5.76E-06
1740.68335,0.000155617,5.66E-06
1748.12317,0.00015427,5.57E-06
1755.59473,0.000152935,5.48E-06
1763.09839,0.000151612,5.39E-06
1770.63403,0.0001503,5.30E-06
1778.2019,0.000148999,5.21E-06
1785.80212,0.00014771,5.12E-06
1793.43481,0.000146431,5.04E-06
1801.1001,0.000145164,4.95E-06
1808.79822,0.000143908,4.87E-06
1816.5293,0.000142663,4.79E-06
1824.29321,0.000141429,4.71E-06
1832.09045,0.000140205,4.63E-06
1839.92102,0.000138992,4.56E-06
1847.78503,0.00013779,4.48E-06
1855.68262,0.000136598,4.40E-06
1863.61401,0.000135416,4.33E-06
1871.57935,0.000134245,4.26E-06
1879.57861,0.000133084,4.19E-06
1887.61206,0.000131933,4.12E-06
1895.67993,0.000130792,4.05E-06
1903.78223,0.000129661,3.98E-06
1911.91919,0.00012854,3.92E-06
1920.09106,0.000127428,3.85E-06
1928.29761,0.000126326,3.79E-06
1936.53943,0.000125234,3.72E-06
1944.81641,0.000124151,3.66E-06
1953.12866,0.000123078,3.60E-06
1961.47656,0.000122014,3.54E-06
1969.86011,0.000120959,3.48E-06
1978.27942,0.000119914,3.42E-06
1986.73486,0.000118877,3.37E-06
1995.22644,0.00011785,3.31E-06
2003.75415,0.000116832,3.26E-06
2012.31836,0.000115822,3.20E-06
2020.91931,0.000114821,3.15E-06
2029.55701,0.00011383,3.10E-06
2038.23132,0.000112847,3.05E-06
2046.94299,0.000111872,3.00E-06
2055.69189,0.000110906,2.95E-06
2064.47827,0.000109948,2.90E-06
2073.30176,0.000108999,2.85E-06
2082.16333,0.000108057,2.80E-06
2091.06274,0.000107124,2.75E-06
2100.00024,0.000106199,2.71E-06